Def. Height/mm,Force/N
0,47.76
0,47.64
0,47.53
0,47.45
0,47.53
0,48.1
0,48.88
0.01,49.61
0.01,50.46
0.01,51.22
0.01,51.94
0.02,52.73
0.02,53.54
0.02,54.13
0.02,54.66
0.03,55.2
0.03,55.55
0.03,55.81
0.03,55.79
0.04,55.71
0.04,55.39
0.04,55.03
0.04,54.77
0.05,54.59
0.05,54.51
0.05,54.55
0.06,54.74
0.06,54.81
0.06,54.99
0.07,55.23
0.07,55.54
0.07,55.78
0.08,56.06
0.08,56.47
0.08,56.74
0.09,57
0.09,57.32
0.09,57.54
0.1,57.64
0.1,57.88
0.1,58.04
0.11,58.27
0.11,58.5
0.11,58.86
0.12,59.14
0.12,59.49
0.12,59.74
0.13,60.12
0.13,60.27
0.13,60.54
0.14,60.84
0.14,61.08
0.14,61.32
0.15,61.65
0.15,61.95
0.15,62.24
0.16,62.58
0.16,62.96
0.16,63.47
0.17,64
0.17,64.62
0.17,65.33
0.18,66.15
0.18,66.92
0.18,67.79
0.19,68.57
0.19,69.44
0.19,70.25
0.2,71.14
0.2,71.92
0.2,72.75
0.21,73.49
0.21,74.05
0.21,74.43
0.22,74.68
0.22,74.84
0.22,74.86
0.23,75
0.23,75.1
0.23,75.32
0.24,75.49
0.24,75.73
0.24,76.01
0.25,76.26
0.25,76.55
0.25,76.8
0.26,77.16
0.26,77.17
0.26,77.03
0.27,76.67
0.27,76.38
0.27,76
0.28,75.84
0.28,75.89
0.28,76.11
0.29,76.25
0.29,76.35
0.29,76.47
0.3,76.68
0.3,76.81
0.3,77.03
0.31,77.21
0.31,77.41
0.31,77.55
0.32,77.7
0.32,77.92
0.32,78.08
0.33,78.27
0.33,78.48
0.33,78.71
0.34,78.9
0.34,79.2
0.34,79.41
0.35,79.71
0.35,80.04
0.35,80.38
0.36,80.76
0.36,81.24
0.36,81.67
0.37,81.99
0.37,82.35
0.37,82.75
0.38,83.22
0.38,83.63
0.38,84.31
0.39,84.97
0.39,85.75
0.39,86.6
0.4,87.62
0.4,88.66
0.4,89.82
0.41,90.91
0.41,91.93
0.41,92.97
0.42,93.96
0.42,94.99
0.42,95.96
0.43,96.98
0.43,97.96
0.43,98.92
0.44,99.82
0.44,100.79
0.44,101.81
0.45,102.87
0.45,103.8
0.45,104.72
0.46,105.48
0.46,105.88
0.46,106.15
0.47,106.38
0.47,106.45
0.47,106.48
0.48,106.63
0.48,106.74
0.48,106.83
0.49,106.97
0.49,107.22
0.49,107.61
0.5,108
0.5,108.5
0.5,109.06
0.51,109.66
0.51,110.13
0.51,110.76
0.52,111.29
0.52,111.8
0.52,112.29
0.53,112.79
0.53,113.23
0.53,113.73
0.54,114.2
0.54,114.62
0.54,114.95
0.55,115.22
0.55,115.59
0.55,115.92
0.56,116.34
0.56,116.85
0.56,117.41
0.57,117.89
0.57,118.44
0.57,118.88
0.58,119.35
0.58,119.67
0.58,119.86
0.59,120
0.59,120.04
0.59,120.08
0.6,120.16
0.6,120.33
0.6,120.39
0.61,120.55
0.61,120.61
0.61,120.69
0.62,120.65
0.62,120.79
0.62,120.98
0.63,121.19
0.63,121.46
0.63,121.82
0.64,122.09
0.64,122.27
0.64,122.43
0.65,122.51
0.65,122.72
0.65,122.92
0.66,123.24
0.66,123.55
0.66,124.02
0.67,124.62
0.67,125.43
0.67,126.38
0.68,127.62
0.68,128.84
0.68,129.95
0.69,131.02
0.69,132.08
0.69,133.07
0.7,134.06
0.7,135
0.7,135.95
0.71,136.85
0.71,137.76
0.71,138.66
0.72,139.72
0.72,140.67
0.72,141.68
0.73,142.65
0.73,143.6
0.73,144.54
0.74,145.61
0.74,146.65
0.74,147.79
0.75,149.03
0.75,150.23
0.75,151.39
0.76,152.62
0.76,153.73
0.76,154.72
0.77,155.5
0.77,156.4
0.77,157.28
0.78,158.22
0.78,159.27
0.78,160.5
0.79,161.64
0.79,162.81
0.79,163.96
0.8,165.03
0.8,165.96
0.8,166.94
0.81,167.93
0.81,169.01
0.81,170.17
0.82,171.62
0.82,173.02
0.82,174.31
0.83,175.58
0.83,176.88
0.83,177.99
0.84,179.01
0.84,179.93
0.84,180.91
0.85,181.86
0.85,182.99
0.85,184.32
0.86,185.8
0.86,187.2
0.86,188.66
0.87,189.96
0.87,191.17
0.87,192.32
0.88,193.24
0.88,194.05
0.88,194.99
0.89,195.93
0.89,196.94
0.89,198.27
0.9,199.64
0.9,201.07
0.9,202.49
0.91,203.83
0.91,205.12
0.91,206.45
0.92,207.64
0.92,208.55
0.92,209.43
0.93,210.41
0.93,211.4
0.93,212.45
0.94,213.86
0.94,215.41
0.94,216.91
0.95,218.36
0.95,219.71
0.95,220.95
0.96,222.07
0.96,223.03
0.96,223.98
0.97,224.79
0.97,225.53
0.97,226.48
0.98,227.64
0.98,228.95
0.98,230.43
0.99,232.23
0.99,233.91
0.99,235.55
1,237.21
1,238.87
1,240.35
1.01,241.95
1.01,243.05
1.01,244.02
1.02,245.13
1.02,246.4
1.02,247.69
1.03,249.48
1.03,251.35
1.03,253.18
1.04,254.94
1.04,256.57
1.04,258.23
1.05,259.8
1.05,261.48
1.05,262.94
1.06,264.07
1.06,265.26
1.06,266.64
1.07,268.03
1.07,269.7
1.07,271.77
1.08,273.67
1.08,275.52
1.08,277.26
1.09,278.91
1.09,280.53
1.09,282.26
1.1,283.97
1.1,285.69
1.1,286.86
1.11,288.05
1.11,289.25
1.11,290.49
1.12,291.8
1.12,293.71
1.12,295.69
1.12,296.72
1.13,298.71
1.13,300.62
1.13,302.57
1.14,304.54
1.14,306.49
1.14,308.34
1.15,309.38
1.15,311.3
1.15,312.81
1.16,313.94
1.16,315.2
1.16,316.49
1.17,317.83
1.17,319.63
1.17,320.67
1.17,321.7
1.17,322.74
1.18,323.77
1.18,324.84
1.18,325.85
1.18,326.89
1.18,327.92
1.18,328.96
1.19,330.02
1.19,331.02
1.19,332.08
1.19,333.11
1.19,335.11
1.2,336.17
1.2,337.19
1.2,338.2
1.2,339.23
1.2,340.24
1.2,341.35
1.21,342.48
1.21,343.48
1.21,344.86
1.21,346.4
1.22,348.05
1.22,349.76
1.22,351.73
1.23,353.12
1.23,354.46
1.23,355.81
1.23,357.11
1.23,358.49
1.23,359.88
1.24,361.29
1.24,362.7
1.24,364.06
1.24,365.42
1.24,366.77
1.24,368.2
1.25,369.58
1.25,371
1.25,372.33
1.25,373.64
1.25,374.96
1.25,376.28
1.26,377.57
1.26,378.81
1.26,380.09
1.26,381.28
1.26,382.53
1.26,383.73
1.27,384.94
1.27,386.13
1.27,387.84
1.27,389.72
1.28,391.71
1.28,392.74
1.28,393.85
1.28,394.99
1.28,396.21
1.29,397.7
1.29,399.38
1.29,401.01
1.29,402.6
1.29,404.29
1.29,405.97
1.3,407.67
1.3,409.36
1.3,411.06
1.3,412.75
1.3,414.46
1.3,416.19
1.31,417.95
1.31,419.74
1.31,421.43
1.31,423.14
1.31,424.88
1.31,426.64
1.32,428.39
1.32,430.17
1.32,431.95
1.32,433.71
1.32,435.45
1.32,437.08
1.33,438.77
1.33,440.53
1.33,442.2
1.33,443.79
1.33,445.1
1.33,446.27
1.34,447.52
1.34,448.84
1.34,450.11
1.34,451.52
1.34,453.01
1.34,454.43
1.35,455.92
1.35,457.38
1.35,459.06
1.35,460.74
1.35,462.19
1.35,463.56
1.36,465.13
1.36,466.73
1.36,468.35
1.36,469.95
1.36,471.54
1.36,473.24
1.37,475.08
1.37,477.1
1.37,479.27
1.37,481.49
1.37,483.6
1.37,485.64
1.38,487.66
1.38,489.7
1.38,491.81
1.38,493.88
1.38,495.95
1.38,497.97
1.39,499.97
1.39,501.94
1.39,504
1.39,506.03
1.39,508.03
1.39,510.08
1.4,512.07
1.4,514.18
1.4,516.26
1.4,518.37
1.4,520.56
1.4,522.74
1.41,524.81
1.41,526.77
1.41,528.43
1.41,529.99
1.41,531.7
1.41,533.32
1.42,534.96
1.42,536.7
1.42,538.44
1.42,540.15
1.42,542.01
1.42,544.01
1.43,546.38
1.43,548.88
1.43,551.31
1.43,553.7
1.43,556.17
1.43,558.46
1.44,560.82
1.44,563.24
1.44,565.62
1.44,568.02
1.44,570.42
1.44,572.79
1.45,575.29
1.45,577.96
1.45,580.65
1.45,583.43
1.45,586.31
1.45,589.18
1.46,592.01
1.46,594.81
1.46,597.67
1.46,600.48
1.46,603.21
1.46,605.76
1.47,608.37
1.47,610.95
1.47,613.48
1.47,615.99
1.47,618.52
1.47,621.04
1.48,623.57
1.48,626.17
1.48,628.73
1.48,631.38
1.48,633.95
1.48,636.52
1.49,639.06
1.49,641.62
1.49,644.18
1.49,646.82
1.49,649.37
1.49,651.92
1.5,654.46
1.5,656.96
1.5,659.49
1.5,662.02
1.5,664.63
1.5,667.21
1.51,669.79
1.51,672.37
1.51,674.99
1.51,677.62
1.51,680.26
1.51,682.95
1.52,685.54
1.52,687.7
1.52,689.51
1.52,691.4
1.52,693.33
1.52,695.27
1.53,697.24
1.53,699.17
1.53,701.1
1.53,703.02
1.53,705.12
1.53,707.59
1.54,710.38
1.54,713.13
1.54,715.93
1.54,718.67
1.54,721.42
1.54,724.18
1.55,726.93
1.55,729.73
1.55,732.43
1.55,735.26
1.55,738.06
1.55,740.92
1.56,743.68
1.56,746.52
1.56,749.38
1.56,752.21
1.56,755.12
1.56,757.96
1.57,760.82
1.57,763.68
1.57,766.54
1.57,769.34
1.57,772.21
1.57,775.01
1.58,777.84
1.58,780.7
1.58,783.52
1.58,786.48
1.58,789.42
1.58,792.27
1.59,795.09
1.59,797.93
1.59,800.79
1.59,803.73
1.59,806.62
1.59,809.54
1.6,812.49
1.6,815.32
1.6,818.23
1.6,821.12
1.6,824.12
1.6,827.17
1.61,830.2
1.61,833.15
1.61,836.15
1.61,839.1
1.61,842.04
1.61,845.01
1.62,848.01
1.62,851.07
1.62,854.09
1.62,857.1
1.62,860.13
1.62,863.26
1.63,866.45
1.63,869.62
1.63,872.77
1.63,876.01
1.63,879.18
1.63,882.4
1.64,885.68
1.64,889.01
1.64,892.32
1.64,895.52
1.64,898.7
1.64,902.02
1.65,905.4
1.65,908.79
1.65,912.27
1.65,915.71
1.65,919.13
1.65,922.56
1.66,925.98
1.66,929.42
1.66,932.85
1.66,936.24
1.66,939.57
1.66,942.95
1.67,946.29
1.67,949.65
1.67,952.99
1.67,956.29
1.67,959.62
1.67,963.1
1.68,966.6
1.68,970.13
1.68,973.76
1.68,977.29
1.68,980.92
1.68,984.54
1.69,988.24
1.69,991.92
1.69,995.62
1.69,999.27
1.69,1003.02
1.69,1006.76
1.7,1010.43
1.7,1014.13
1.7,1017.73
1.7,1021.37
1.7,1025.07
1.7,1028.85
1.71,1032.56
1.71,1036.26
1.71,1039.95
1.71,1043.56
1.71,1047.21
1.71,1050.85
1.72,1054.54
1.72,1058.18
1.72,1061.85
1.72,1065.54
1.72,1069.29
1.72,1073.01
1.73,1076.71
1.73,1080.43
1.73,1084.18
1.73,1088.04
1.73,1091.95
1.73,1095.82
1.74,1099.65
1.74,1103.49
1.74,1107.32
1.74,1111.17
1.74,1115.01
1.74,1118.87
1.75,1122.76
1.75,1126.7
1.75,1130.59
1.75,1134.46
1.75,1138.32
1.75,1142.15
1.76,1146.06
1.76,1149.99
1.76,1153.99
1.76,1157.99
1.76,1162.06
1.76,1166.02
1.77,1170.01
1.77,1174.04
1.77,1177.99
1.77,1181.85
1.77,1185.79
1.77,1189.79
1.78,1193.74
1.78,1197.63
1.78,1201.48
1.78,1205.4
1.78,1209.31
1.78,1213.26
1.79,1217.24
1.79,1221.31
1.79,1225.4
1.79,1229.52
1.79,1233.62
1.79,1237.81
1.8,1242.02
1.8,1246.15
1.8,1250.34
1.8,1254.52
1.8,1258.74
1.8,1262.99
1.81,1267.18
1.81,1271.31
1.81,1275.37
1.81,1279.49
1.81,1283.62
1.81,1287.77
1.82,1291.99
1.82,1296.24
1.82,1300.49
1.82,1304.68
1.82,1308.87
1.82,1313.02
1.83,1317.31
1.83,1321.56
1.83,1325.77
1.83,1329.96
1.83,1334.15
1.83,1338.31
1.84,1342.43
1.84,1346.52
1.84,1350.65
1.84,1354.81
1.84,1358.96
1.84,1363.21
1.85,1367.49
1.85,1371.71
1.85,1375.93
1.85,1380.24
1.85,1384.65
1.85,1389.09
1.86,1393.52
1.86,1398.02
1.86,1402.56
1.86,1407.06
1.86,1411.49
1.86,1415.99
1.87,1420.52
1.87,1424.96
1.87,1429.31
1.87,1433.74
1.87,1438.15
1.87,1442.62
1.88,1447.06
1.88,1451.46
1.88,1455.87
1.88,1460.37
1.88,1464.74
1.88,1469.24
1.89,1473.77
1.89,1478.27
1.89,1482.71
1.89,1487.09
1.89,1491.43
1.89,1495.84
1.9,1500.27
1.9,1504.71
1.9,1509.24
1.9,1513.74
1.9,1518.24
1.9,1522.84
1.91,1527.46
1.91,1532.06
1.91,1536.74
1.91,1541.49
1.91,1546.21
1.91,1551.06
1.92,1555.77
1.92,1560.49
1.92,1565.21
1.92,1569.87
1.92,1574.52
1.92,1579.21
1.93,1583.9
1.93,1588.52
1.93,1593.18
1.93,1597.71
1.93,1602.37
1.93,1606.96
1.94,1611.52
1.94,1616.06
1.94,1620.71
1.94,1625.34
1.94,1629.96
1.94,1634.56
1.95,1639.12
1.95,1643.65
1.95,1648.21
1.95,1652.81
1.95,1657.46
1.95,1662.21
1.96,1666.9
1.96,1671.68
1.96,1676.46
1.96,1681.27
1.96,1686.12
1.96,1690.93
1.97,1695.81
1.97,1700.74
1.97,1705.71
1.97,1710.65
1.97,1715.56
1.97,1720.43
1.98,1725.24
1.98,1730.09
1.98,1734.93
1.98,1739.84
1.98,1744.68
1.98,1749.49
1.99,1754.24
1.99,1758.99
1.99,1763.81
1.99,1768.52
1.99,1773.34
1.99,1778.06
2,1782.93
2,1787.81
2,1792.65
2,1797.52
2,1802.43
2,1807.34
2.01,1812.21
2.01,1817.21
2.01,1822.28
2.01,1827.46
2.01,1832.46
2.01,1837.53
2.02,1842.62
2.02,1847.71
2.02,1852.81
2.02,1858.18
2.02,1863.68
2.02,1869.18
2.03,1874.59
2.03,1880.09
2.03,1885.62
2.03,1891.06
2.03,1896.53
2.03,1902.03
2.04,1907.62
2.04,1912.96
2.04,1918.15
2.04,1923.43
2.04,1928.75
2.04,1934.03
2.05,1939.28
2.05,1944.62
2.05,1950.03
2.05,1955.37
2.05,1960.56
2.05,1965.84
2.06,1971.15
2.06,1976.4
2.06,1981.46
2.06,1986.59
2.06,1991.78
2.06,1996.9
2.07,2002
2.07,2007.18
2.07,2012.53
2.07,2017.75
2.07,2023.03
2.07,2028.34
2.08,2033.75
2.08,2039.12
2.08,2044.62
2.08,2050.12
2.08,2055.62
2.08,2061.09
2.09,2066.56
2.09,2072.09
2.09,2077.5
2.09,2082.87
2.09,2088.34
2.09,2093.87
2.1,2099.25
2.1,2104.75
2.1,2110.34
2.1,2115.87
2.1,2121.31
2.1,2126.78
2.11,2132.25
2.11,2137.78
2.11,2143.25
2.11,2148.71
2.11,2154.25
2.11,2159.62
2.12,2165.03
2.12,2170.5
2.12,2175.9
2.12,2181.43
2.12,2187.18
2.12,2192.93
2.13,2198.71
2.13,2204.46
2.13,2210.25
2.13,2216.09
2.13,2221.9
2.13,2227.84
2.14,2233.84
2.14,2239.87
2.14,2245.84
2.14,2251.84
2.14,2257.75
2.14,2263.65
2.15,2269.65
2.15,2275.75
2.15,2281.87
2.15,2287.93
2.15,2293.93
2.15,2299.84
2.16,2305.71
2.16,2311.53
2.16,2317.5
2.16,2323.37
2.16,2329.25
2.16,2335.06
2.17,2340.9
2.17,2346.68
2.17,2352.5
2.17,2358.4
2.17,2364.31
2.17,2370.28
2.18,2376.15
2.18,2382.18
2.18,2388.21
2.18,2394.37
2.18,2400.46
2.18,2406.62
2.19,2412.81
2.19,2418.96
2.19,2425.18
2.19,2431.53
2.19,2437.96
2.19,2444.4
2.2,2450.75
2.2,2457
2.2,2463.34
2.2,2469.5
2.2,2475.78
2.2,2482.12
2.21,2488.43
2.21,2494.75
2.21,2500.9
2.21,2507.18
2.21,2513.5
2.21,2519.87
2.22,2526.21
2.22,2532.59
2.22,2539.03
2.22,2545.46
2.22,2551.87
2.22,2558.25
2.23,2564.59
2.23,2570.93
2.23,2577.34
2.23,2583.78
2.23,2590.28
2.23,2596.87
2.24,2603.4
2.24,2609.96
2.24,2616.46
2.24,2622.93
2.24,2629.53
2.24,2636.06
2.25,2642.56
2.25,2649.12
2.25,2655.68
2.25,2662.25
2.25,2668.81
2.25,2675.34
2.26,2681.87
2.26,2688.4
2.26,2694.93
2.26,2701.68
2.26,2708.31
2.26,2714.9
2.27,2721.43
2.27,2727.93
2.27,2734.43
2.27,2740.93
2.27,2747.56
2.27,2754.21
2.28,2760.84
2.28,2767.28
2.28,2773.75
2.28,2780.09
2.28,2786.53
2.28,2793.03
2.29,2799.46
2.29,2806
2.29,2812.53
2.29,2819.12
2.29,2825.78
2.29,2832.5
2.3,2839.21
2.3,2846.03
2.3,2852.81
2.3,2859.65
2.3,2866.59
2.3,2873.62
2.31,2880.56
2.31,2887.46
2.31,2894.34
2.31,2901.18
2.31,2908.12
2.31,2915.15
2.32,2922.15
2.32,2929.18
2.32,2936.18
2.32,2943.06
2.32,2950
2.32,2956.93
2.33,2963.84
2.33,2970.75
2.33,2977.65
2.33,2984.53
2.33,2991.5
2.33,2998.4
2.34,3005.28
2.34,3012.21
2.34,3019.03
2.34,3025.93
2.34,3032.9
2.34,3040.03
2.35,3047.18
2.35,3054.34
2.35,3061.46
2.35,3068.62
2.35,3075.75
2.35,3082.9
2.36,3090.18
2.36,3097.53
2.36,3105
2.36,3112.31
2.36,3119.62
2.36,3126.9
2.37,3134.12
2.37,3141.65
2.37,3149.25
2.37,3156.9
2.37,3164.53
2.37,3172.15
2.38,3179.65
2.38,3187.21
2.38,3194.68
2.38,3202.18
2.38,3209.75
2.38,3217.09
2.39,3224.37
2.39,3231.75
2.39,3239.03
2.39,3246.15
2.39,3253.21
2.39,3260.37
2.4,3267.59
2.4,3274.81
2.4,3282.09
2.4,3289.43
2.4,3296.78
2.4,3304.06
2.41,3311.46
2.41,3319
2.41,3326.59
2.41,3334.15
2.41,3341.68
2.41,3349.21
2.42,3356.75
2.42,3364.25
2.42,3371.68
2.42,3379.12
2.42,3386.56
2.42,3394
2.43,3401.4
2.43,3408.96
2.43,3416.43
2.43,3423.96
2.43,3431.46
2.43,3438.87
2.44,3446.31
2.44,3453.75
2.44,3461.06
2.44,3468.5
2.44,3475.96
2.44,3483.31
2.45,3490.65
2.45,3497.9
2.45,3505.12
2.45,3512.5
2.45,3519.78
2.45,3527.18
2.46,3534.68
2.46,3542.18
2.46,3549.68
2.46,3557.25
2.46,3564.81
2.46,3572.4
2.47,3580.09
2.47,3587.71
2.47,3595.5
2.47,3603.21
2.47,3610.96
2.47,3618.65
2.48,3626.28
2.48,3633.93
2.48,3641.59
2.48,3649.31
2.48,3657
2.48,3664.68
2.49,3672.43
2.49,3680.12
2.49,3687.71
2.49,3695.31
2.49,3702.9
2.49,3710.43
2.5,3718.15
2.5,3725.84
2.5,3733.46
2.5,3741.09
2.5,3748.5
2.5,3755.93
2.51,3763.34
2.51,3770.75
2.51,3778.18
2.51,3785.68
2.51,3793.28
2.51,3800.87
2.52,3808.56
2.52,3816.25
2.52,3823.96
2.52,3831.71
2.52,3839.43
2.52,3847.37
2.53,3855.34
2.53,3863.25
2.53,3871.03
2.53,3878.81
2.53,3886.53
2.53,3894.18
2.54,3901.87
2.54,3909.68
2.54,3917.62
2.54,3925.4
2.54,3933.15
2.54,3940.93
2.55,3948.62
2.55,3956.34
2.55,3964.03
2.55,3971.75
2.55,3979.56
2.55,3987.31
2.56,3994.93
2.56,4002.56
2.56,4010.09
2.56,4017.62
2.56,4025.21
2.56,4032.81
2.57,4040.5
2.57,4048.28
2.57,4056.12
2.57,4063.87
2.57,4071.65
2.57,4079.46
2.58,4087.34
2.58,4095.25
2.58,4103.25
2.58,4111.43
2.58,4119.62
2.58,4127.81
2.59,4135.81
2.59,4143.87
2.59,4151.87
2.59,4159.87
2.59,4167.93
2.59,4176.06
2.6,4184.06
2.6,4192
2.6,4199.87
2.6,4207.65
2.6,4215.43
2.6,4223.21
2.61,4231.03
2.61,4238.87
2.61,4246.65
2.61,4254.31
2.61,4261.87
2.61,4269.31
2.62,4276.87
2.62,4284.37
2.62,4291.81
2.62,4299.34
2.62,4306.96
2.62,4314.65
2.63,4322.37
2.63,4330.18
2.63,4338
2.63,4345.87
2.63,4353.62
2.63,4361.56
2.64,4369.62
2.64,4377.68
2.64,4385.68
2.64,4393.59
2.64,4401.46
2.64,4409.21
2.65,4417.03
2.65,4424.84
2.65,4433.03
2.65,4441.28
2.65,4449.46
2.65,4457.59
2.66,4465.78
2.66,4473.84
2.66,4481.9
2.66,4489.96
2.66,4498.09
2.66,4506.21
2.67,4514.03
2.67,4521.78
2.67,4529.5
2.67,4537.15
2.67,4544.78
2.67,4552.4
2.68,4560.09
2.68,4567.93
2.68,4575.71
2.68,4583.56
2.68,4591.34
2.68,4599.15
2.69,4607
2.69,4614.78
2.69,4622.62
2.69,4630.62
2.69,4638.68
2.69,4646.65
2.7,4654.65
2.7,4662.62
2.7,4670.5
2.7,4678.28
2.7,4686.09
2.7,4693.93
2.71,4701.81
2.71,4709.56
2.71,4717.25
2.71,4724.9
2.71,4732.43
2.71,4739.87
2.72,4747.46
2.72,4755.09
2.72,4762.75
2.72,4770.46
2.72,4778
2.72,4785.53
2.73,4792.96
2.73,4800.34
2.73,4807.84
2.73,4815.34
2.73,4822.93
2.73,4830.59
2.74,4838.21
2.74,4845.81
2.74,4853.53
2.74,4861.31
2.74,4869.18
2.74,4877.09
2.75,4885.03
2.75,4893
2.75,4900.9
2.75,4908.75
2.75,4916.53
2.75,4924.4
2.76,4932.15
2.76,4939.9
2.76,4947.65
2.76,4955.53
2.76,4963.4
2.76,4971.28
2.77,4979.03
2.77,4986.84
2.77,4994.56
2.77,5002.21
2.77,5010
2.77,5017.75
2.78,5025.46
2.78,5033.18
2.78,5040.68
2.78,5048.21
2.78,5055.78
2.78,5063.21
2.79,5070.68
2.79,5078.18
2.79,5085.78
2.79,5093.43
2.79,5101.09
2.79,5108.68
2.8,5116.4
2.8,5124.09
2.8,5131.75
2.8,5139.53
2.8,5147.46
2.8,5155.46
2.81,5163.43
2.81,5171.34
2.81,5179.21
2.81,5187.06
2.81,5194.81
2.81,5202.62
2.82,5210.59
2.82,5218.5
2.82,5226.31
2.82,5234
2.82,5241.62
2.82,5249.34
2.83,5256.96
2.83,5264.68
2.83,5272.5
2.83,5280.31
2.83,5288.06
2.83,5295.75
2.84,5303.31
2.84,5310.78
2.84,5318.31
2.84,5325.68
2.84,5333.18
2.84,5340.75
2.85,5348.34
2.85,5355.96
2.85,5363.59
2.85,5371.28
2.85,5379.09
2.85,5387
2.86,5394.93
2.86,5403
2.86,5411.18
2.86,5419.18
2.86,5427.25
2.86,5435.18
2.87,5443.06
2.87,5450.9
2.87,5458.78
2.87,5466.65
2.87,5474.53
2.87,5482.31
2.88,5490.03
2.88,5497.78
2.88,5505.46
2.88,5513.12
2.88,5520.68
2.88,5528.28
2.89,5535.78
2.89,5543.25
2.89,5550.84
2.89,5558.25
2.89,5565.68
2.89,5573.06
2.9,5580.4
2.9,5587.87
2.9,5595.53
2.9,5603.25
2.9,5611.12
2.9,5618.96
2.91,5626.65
2.91,5634.56
2.91,5642.4
2.91,5650.34
2.91,5658.4
2.91,5666.53
2.92,5674.65
2.92,5682.71
2.92,5690.71
2.92,5698.65
2.92,5706.53
2.92,5714.34
2.93,5722.31
2.93,5730.5
2.93,5738.62
2.93,5746.75
2.93,5754.75
2.93,5762.81
2.94,5770.78
2.94,5778.84
2.94,5786.96
2.94,5795.15
2.94,5803.15
2.94,5811.06
2.95,5818.87
2.95,5826.53
2.95,5834.15
2.95,5841.78
2.95,5849.43
2.95,5857.09
2.96,5864.84
2.96,5872.59
2.96,5880.34
2.96,5888.12
2.96,5896
2.96,5903.9
2.97,5911.75
2.97,5919.71
2.97,5927.71
2.97,5935.71
2.97,5943.68
2.97,5951.59
2.98,5959.46
2.98,5967.28
2.98,5975.03
2.98,5982.87
2.98,5990.84
2.98,5998.78
2.99,6006.59
2.99,6014.46
2.99,6022.34
2.99,6030.15
2.99,6037.9
2.99,6045.62
3,6053.43
3,6061.21
3,6068.93
3,6076.65
3,6084.34
3,6091.96
3.01,6099.56
3.01,6107.06
3.01,6114.75
3.01,6122.59
3.01,6130.34
3.01,6138.12
3.02,6145.93
3.02,6153.71
3.02,6161.65
3.02,6169.53
3.02,6177.4
3.02,6185.46
3.03,6193.59
3.03,6201.65
3.03,6209.71
3.03,6217.84
3.03,6225.9
3.03,6233.96
3.04,6241.96
3.04,6250.03
3.04,6258.28
3.04,6266.34
3.04,6274.4
3.04,6282.4
3.05,6290.37
3.05,6298.31
3.05,6306.25
3.05,6314.18
3.05,6322.15
3.05,6330
3.06,6337.78
3.06,6345.46
3.06,6352.96
3.06,6360.4
3.06,6367.81
3.06,6375.18
3.07,6382.65
3.07,6390.25
3.07,6397.81
3.07,6405.46
3.07,6413.09
3.07,6420.9
3.08,6428.78
3.08,6436.75
3.08,6444.75
3.08,6452.93
3.08,6461.12
3.08,6469.12
3.09,6477.18
3.09,6485.18
3.09,6493.25
3.09,6501.25
3.09,6509.25
3.09,6517.31
3.1,6525.31
3.1,6533.28
3.1,6541.25
3.1,6549.09
3.1,6556.96
3.1,6564.84
3.11,6572.71
3.11,6580.56
3.11,6588.37
3.11,6596.15
3.11,6603.9
3.11,6611.62
3.12,6619.18
3.12,6626.84
3.12,6634.53
3.12,6642.31
3.12,6650.18
3.12,6658.09
3.13,6666.09
3.13,6674.15
3.13,6682.21
3.13,6690.4
3.13,6698.59
3.13,6706.84
3.14,6715.21
3.14,6723.59
3.14,6731.9
3.14,6740.15
3.14,6748.34
3.14,6756.46
3.15,6764.46
3.15,6772.37
3.15,6780.43
3.15,6788.5
3.15,6796.43
3.15,6804.21
3.16,6812.03
3.16,6819.81
3.16,6827.56
3.16,6835.37
3.16,6843.37
3.16,6851.43
3.17,6859.5
3.17,6867.5
3.17,6875.46
3.17,6883.43
3.17,6891.28
3.17,6899.09
3.18,6906.9
3.18,6914.78
3.18,6922.65
3.18,6930.65
3.18,6938.59
3.18,6946.5
3.19,6954.43
3.19,6962.4
3.19,6970.53
3.19,6978.71
3.19,6987.03
3.19,6995.28
3.2,7003.4
3.2,7011.65
3.2,7020.03
3.2,7028.4
3.2,7036.78
3.2,7045.21
3.21,7053.71
3.21,7062.21
3.21,7070.65
3.21,7079.15
3.21,7087.65
3.21,7095.9
3.22,7104.03
3.22,7112.28
3.22,7120.59
3.22,7128.78
3.22,7136.9
3.22,7144.96
3.23,7152.96
3.23,7160.9
3.23,7168.68
3.23,7176.62
3.23,7184.62
3.23,7192.56
3.24,7200.46
3.24,7208.4
3.24,7216.34
3.24,7224.31
3.24,7232.28
3.24,7240.28
3.25,7248.46
3.25,7256.71
3.25,7264.96
3.25,7273.21
3.25,7281.53
3.25,7289.84
3.26,7298.15
3.26,7306.34
3.26,7314.65
3.26,7323.15
3.26,7331.65
3.26,7339.96
3.27,7348.15
3.27,7356.34
3.27,7364.4
3.27,7372.53
3.27,7380.59
3.27,7388.78
3.28,7396.9
3.28,7404.96
3.28,7412.81
3.28,7420.62
3.28,7428.4
3.28,7436.12
3.29,7443.71
3.29,7451.37
3.29,7459.18
3.29,7467.06
3.29,7474.93
3.29,7482.75
3.3,7490.68
3.3,7498.75
3.3,7506.93
3.3,7515.25
3.3,7523.75
3.3,7532.25
3.31,7540.68
3.31,7549
3.31,7557.31
3.31,7565.75
3.31,7574.06
3.31,7582.43
3.32,7590.68
3.32,7598.93
3.32,7607.12
3.32,7615.18
3.32,7623.25
3.32,7631.25
3.33,7639.21
3.33,7647.06
3.33,7654.96
3.33,7662.81
3.33,7670.56
3.33,7678.31
3.34,7686.12
3.34,7693.9
3.34,7701.62
3.34,7709.21
3.34,7717.03
3.34,7724.96
3.35,7732.93
3.35,7741
3.35,7749
3.35,7757.18
3.35,7765.37
3.35,7773.62
3.36,7781.87
3.36,7790.37
3.36,7798.81
3.36,7807.25
3.36,7815.62
3.36,7824
3.37,7832.37
3.37,7840.56
3.37,7848.68
3.37,7856.87
3.37,7865.18
3.37,7873.37
3.38,7881.43
3.38,7889.43
3.38,7897.5
3.38,7905.4
3.38,7913.25
3.38,7921.31
3.39,7929.5
3.39,7937.68
3.39,7945.68
3.39,7953.68
3.39,7961.75
3.39,7969.71
3.4,7977.56
3.4,7985.5
3.4,7993.62
3.4,8001.68
3.4,8009.62
3.4,8017.68
3.41,8025.81
3.41,8033.93
3.41,8042.06
3.41,8050.25
3.41,8058.5
3.41,8066.87
3.42,8075.12
3.42,8083.31
3.42,8091.43
3.42,8099.43
3.42,8107.43
3.42,8115.4
3.43,8123.4
3.43,8131.59
3.43,8139.84
3.43,8148.09
3.43,8156.15
3.43,8164.34
3.44,8172.59
3.44,8180.84
3.44,8189.09
3.44,8197.46
3.44,8205.84
3.44,8214.09
3.45,8222.21
3.45,8230.28
3.45,8238.4
3.45,8246.37
3.45,8254.21
3.45,8262.12
3.46,8270.12
3.46,8278.12
3.46,8286
3.46,8294.06
3.46,8302.25
3.46,8310.68
3.47,8319
3.47,8327.43
3.47,8336
3.47,8344.68
3.47,8353.43
3.47,8362.06
3.48,8370.75
3.48,8379.5
3.48,8388.06
3.48,8396.43
3.48,8404.93
3.48,8413.56
3.49,8422.12
3.49,8430.62
3.49,8438.87
3.49,8447.12
3.49,8455.25
3.49,8463.31
3.5,8471.5
3.5,8479.68
3.5,8487.81
3.5,8495.75
3.5,8503.65
3.5,8511.37
3.51,8518.96
3.51,8526.53
3.51,8533.96
3.51,8541.53
3.51,8548.93
3.51,8556.46
3.52,8564.09
3.52,8571.81
3.52,8579.56
3.52,8587.4
3.52,8595.4
3.52,8603.65
3.53,8612.15
3.53,8620.71
3.53,8629.15
3.53,8637.59
3.53,8645.9
3.53,8654.21
3.54,8662.4
3.54,8670.71
3.54,8679.03
3.54,8687.15
3.54,8695.4
3.54,8703.4
3.55,8711.53
3.55,8719.53
3.55,8727.5
3.55,8735.5
3.55,8743.5
3.55,8751.46
3.56,8759.28
3.56,8767.21
3.56,8774.93
3.56,8782.68
3.56,8790.25
3.56,8797.9
3.57,8805.84
3.57,8813.78
3.57,8821.78
3.57,8829.84
3.57,8838.09
3.57,8846.21
3.58,8854.46
3.58,8862.71
3.58,8871.09
3.58,8879.59
3.58,8887.96
3.58,8896.4
3.59,8904.78
3.59,8913.21
3.59,8921.4
3.59,8929.59
3.59,8937.65
3.59,8945.84
3.6,8954.09
3.6,8962.15
3.6,8970.12
3.6,8978.03
3.6,8985.93
3.6,8993.71
3.61,9001.46
3.61,9009.37
3.61,9017.5
3.61,9025.62
3.61,9033.56
3.61,9041.5
3.62,9049.43
3.62,9057.18
3.62,9064.9
3.62,9072.68
3.62,9080.68
3.62,9088.62
3.63,9096.46
3.63,9104.31
3.63,9112.25
3.63,9120.25
3.63,9128.31
3.63,9136.43
3.64,9144.62
3.64,9152.93
3.64,9161.18
3.64,9169.31
3.64,9177.37
3.64,9185.43
3.65,9193.5
3.65,9201.43
3.65,9209.5
3.65,9217.68
3.65,9225.87
3.65,9234.06
3.66,9242.25
3.66,9250.43
3.66,9258.68
3.66,9266.93
3.66,9275.18
3.66,9283.56
3.67,9291.87
3.67,9300
3.67,9308
3.67,9316
3.67,9323.87
3.67,9331.7
3.68,9339.45
3.68,9347.29
3.68,9355.13
3.68,9362.92
3.68,9370.76
3.68,9378.7
3.69,9386.6
3.69,9394.57
3.69,9402.54
3.69,9410.54
3.69,9418.73
3.69,9426.98
3.7,9435.17
3.7,9443.42
3.7,9451.73
3.7,9460.1
3.7,9468.35
3.7,9476.67
3.71,9485.1
3.71,9493.6
3.71,9502.1
3.71,9510.42
3.71,9518.67
3.71,9526.85
3.72,9534.98
3.72,9542.98
3.72,9551.17
3.72,9559.29
3.72,9567.29
3.72,9575.23
3.73,9583.01
3.73,9590.7
3.73,9598.38
3.73,9606.2
3.73,9614.04
3.73,9621.98
3.74,9629.98
3.74,9637.98
3.74,9646.1
3.74,9654.23
3.74,9662.48
3.74,9670.85
3.75,9679.23
3.75,9687.6
3.75,9696.17
3.75,9704.73
3.75,9713.17
3.75,9721.54
3.76,9729.85
3.76,9738.1
3.76,9746.35
3.76,9754.67
3.76,9763.1
3.76,9771.42
3.77,9779.48
3.77,9787.45
3.77,9795.35
3.77,9803.2
3.77,9810.98
3.77,9818.85
3.78,9826.73
3.78,9834.54
3.78,9842.07
3.78,9849.57
3.78,9857.1
3.78,9864.63
3.79,9872.17
3.79,9879.79
3.79,9887.57
3.79,9895.45
3.79,9903.35
3.79,9911.32
3.8,9919.38
3.8,9927.57
3.8,9935.82
3.8,9944.26
3.8,9952.7
3.8,9961.13
3.81,9969.63
3.81,9978.07
3.81,9986.51
3.81,9994.82
3.81,10003.2
3.81,10011.45
3.82,10019.63
3.82,10027.76
3.82,10036.01
3.82,10044.2
3.82,10052.32
3.82,10060.2
3.83,10068.01
3.83,10075.85
3.83,10083.76
3.83,10091.88
3.83,10099.95
3.83,10108.07
3.84,10116.13
3.84,10124.13
3.84,10131.98
3.84,10139.79
3.84,10147.63
3.84,10155.45
3.85,10163.23
3.85,10170.82
3.85,10178.6
3.85,10186.26
3.85,10193.98
3.85,10201.67
3.86,10209.54
3.86,10217.6
3.86,10225.67
3.86,10233.73
3.86,10241.79
3.86,10249.85
3.87,10257.85
3.87,10265.7
3.87,10273.51
3.87,10281.35
3.87,10289.26
3.87,10297.1
3.88,10304.98
3.88,10312.79
3.88,10320.7
3.88,10328.6
3.88,10336.48
3.88,10344.45
3.89,10352.51
3.89,10360.63
3.89,10368.57
3.89,10376.48
3.89,10384.32
3.89,10392.1
3.9,10399.7
3.9,10407.23
3.9,10414.85
3.9,10422.54
3.9,10430.07
3.9,10437.67
3.91,10445.26
3.91,10452.98
3.91,10460.73
3.91,10468.45
3.91,10476.29
3.91,10484.26
3.92,10492.2
3.92,10500.13
3.92,10508.2
3.92,10516.32
3.92,10524.51
3.92,10532.51
3.93,10540.51
3.93,10548.7
3.93,10556.95
3.93,10565.13
3.93,10573.32
3.93,10581.38
3.94,10589.35
3.94,10597.17
3.94,10604.79
3.94,10612.6
3.94,10620.51
3.94,10628.26
3.95,10635.88
3.95,10643.38
3.95,10650.67
3.95,10658.01
3.95,10665.07
3.95,10672.17
3.96,10679.42
3.96,10686.6
3.96,10693.79
3.96,10701.01
3.96,10708.23
3.96,10715.54
3.97,10722.95
3.97,10730.38
3.97,10738.17
3.97,10746.17
3.97,10754.1
3.97,10762.04
3.98,10769.95
3.98,10777.85
3.98,10785.79
3.98,10793.7
3.98,10801.63
3.98,10809.63
3.99,10817.63
3.99,10825.38
3.99,10833.1
3.99,10840.79
3.99,10848.48
3.99,10856.13
4,10863.76
4,10871.35
4,10878.92
4,10886.32
4,10893.79
4,10901.45
4.01,10908.98
4.01,10916.51
4.01,10923.98
4.01,10931.57
4.01,10939.29
4.01,10947.04
4.02,10954.92
4.02,10962.88
4.02,10970.7
4.02,10978.51
4.02,10986.42
4.02,10994.35
4.03,11002.35
4.03,11010.26
4.03,11018.26
4.03,11026.2
4.03,11034.01
4.03,11041.79
4.04,11049.45
4.04,11057.04
4.04,11064.67
4.04,11072.26
4.04,11079.76
4.04,11087.23
4.05,11094.48
4.05,11101.79
4.05,11108.95
4.05,11115.98
4.05,11123.17
4.05,11130.42
4.06,11137.67
4.06,11144.98
4.06,11152.17
4.06,11159.32
4.06,11166.48
4.06,11173.48
4.07,11180.54
4.07,11187.79
4.07,11194.98
4.07,11202.1
4.07,11209.23
4.07,11216.26
4.08,11223.45
4.08,11230.63
4.08,11237.95
4.08,11245.45
4.08,11253.01
4.08,11260.45
4.09,11267.92
4.09,11275.2
4.09,11282.42
4.09,11289.63
4.09,11296.79
4.09,11303.98
4.1,11311.2
4.1,11318.42
4.1,11325.63
4.1,11332.88
4.1,11340.01
4.1,11347.26
4.11,11354.54
4.11,11361.88
4.11,11369.29
4.11,11376.67
4.11,11383.88
4.11,11391.13
4.12,11398.2
4.12,11405.07
4.12,11411.98
4.12,11418.73
4.12,11425.54
4.12,11432.38
4.13,11439.13
4.13,11445.85
4.13,11452.63
4.13,11459.32
4.13,11466.1
4.13,11473.01
4.14,11480.04
4.14,11487.13
4.14,11494.26
4.14,11501.32
4.14,11508.42
4.14,11515.57
4.15,11522.73
4.15,11529.98
4.15,11537.2
4.15,11544.54
4.15,11551.85
4.15,11559.26
4.16,11566.6
4.16,11573.95
4.16,11581.01
4.16,11588.04
4.16,11594.98
4.16,11602.01
4.17,11608.92
4.17,11615.76
4.17,11622.54
4.17,11629.23
4.17,11635.67
4.17,11641.95
4.18,11648.23
4.18,11654.38
4.18,11660.54
4.18,11666.6
4.18,11672.79
4.18,11678.98
4.19,11685.23
4.19,11691.54
4.19,11697.98
4.19,11704.7
4.19,11711.79
4.19,11718.92
4.2,11726.1
4.2,11733.32
4.2,11740.48
4.2,11747.67
4.2,11754.76
4.2,11761.67
4.21,11768.73
4.21,11775.63
4.21,11782.32
4.21,11789.07
4.21,11795.76
4.21,11802.32
4.22,11808.79
4.22,11815.1
4.22,11821.42
4.22,11827.92
4.22,11834.23
4.22,11840.45
4.23,11846.63
4.23,11852.79
4.23,11858.82
4.23,11864.82
4.23,11870.85
4.23,11877.13
4.24,11883.51
4.24,11889.73
4.24,11896.17
4.24,11902.79
4.24,11909.48
4.24,11916.07
4.25,11922.79
4.25,11929.67
4.25,11936.6
4.25,11943.48
4.25,11950.38
4.25,11957.32
4.26,11964.17
4.26,11970.92
4.26,11977.54
4.26,11984.2
4.26,11990.82
4.26,11997.48
4.27,12004.01
4.27,12010.38
4.27,12016.67
4.27,12022.95
4.27,12029.1
4.27,12035.29
4.28,12041.63
4.28,12048.07
4.28,12054.51
4.28,12060.95
4.28,12067.35
4.28,12073.76
4.29,12080.04
4.29,12086.2
4.29,12092.48
4.29,12098.73
4.29,12104.95
4.29,12111.2
4.3,12117.35
4.3,12123.51
4.3,12129.73
4.3,12136.04
4.3,12142.42
4.3,12148.98
4.31,12155.57
4.31,12162.17
4.31,12168.63
4.31,12174.98
4.31,12181.26
4.31,12187.7
4.32,12194.29
4.32,12200.92
4.32,12207.63
4.32,12214.32
4.32,12220.88
4.32,12227.42
4.33,12234.13
4.33,12240.79
4.33,12247.48
4.33,12254.13
4.33,12260.73
4.33,12267.29
4.34,12273.63
4.34,12279.95
4.34,12286.29
4.34,12292.45
4.34,12298.45
4.34,12304.57
4.35,12310.76
4.35,12316.73
4.35,12322.67
4.35,12328.6
4.35,12334.67
4.35,12340.7
4.36,12346.76
4.36,12352.88
4.36,12359.26
4.36,12365.73
4.36,12372.17
4.36,12378.73
4.37,12385.29
4.37,12391.82
4.37,12398.42
4.37,12405.04
4.37,12411.67
4.37,12418.42
4.38,12425.01
4.38,12431.51
4.38,12438.04
4.38,12444.38
4.38,12450.67
4.38,12456.85
4.39,12462.98
4.39,12469.07
4.39,12475.17
4.39,12481.13
4.39,12487.04
4.39,12492.7
4.4,12498.17
4.4,12503.6
4.4,12508.88
4.4,12514.17
4.4,12519.54
4.4,12524.95
4.41,12530.38
4.41,12535.85
4.41,12541.38
4.41,12547.07
4.41,12552.85
4.41,12558.82
4.42,12565.07
4.42,12571.45
4.42,12577.79
4.42,12584.04
4.42,12590.2
4.42,12596.35
4.43,12602.45
4.43,12608.54
4.43,12614.76
4.43,12620.92
4.43,12627.01
4.43,12632.88
4.44,12638.63
4.44,12644.32
4.44,12649.95
4.44,12655.51
4.44,12661.04
4.44,12666.6
4.45,12672.13
4.45,12677.48
4.45,12682.76
4.45,12688.07
4.45,12693.42
4.45,12698.67
4.46,12704.01
4.46,12709.6
4.46,12715.23
4.46,12720.76
4.46,12726.42
4.46,12732.23
4.47,12737.98
4.47,12743.85
4.47,12749.76
4.47,12755.82
4.47,12761.92
4.47,12767.88
4.48,12773.95
4.48,12780.04
4.48,12786.01
4.48,12791.85
4.48,12797.63
4.48,12803.32
4.49,12809.1
4.49,12814.76
4.49,12820.35
4.49,12825.88
4.49,12831.23
4.49,12836.54
4.5,12841.76
4.5,12847.13
4.5,12852.67
4.5,12858.35
4.5,12863.85
4.5,12869.42
4.51,12874.98
4.51,12880.38
4.51,12885.75
4.51,12891.04
4.51,12896.29
4.51,12901.47
4.52,12906.69
4.52,12911.91
4.52,12917.19
4.52,12922.47
4.52,12927.79
4.52,12933.32
4.53,12938.97
4.53,12944.72
4.53,12950.54
4.53,12956.29
4.53,12961.97
4.53,12967.5
4.54,12972.94
4.54,12978.35
4.54,12983.82
4.54,12989.29
4.54,12994.66
4.54,13000.13
4.55,13005.63
4.55,13011.13
4.55,13016.63
4.55,13022.16
4.55,13027.72
4.55,13033.35
4.56,13038.97
4.56,13044.5
4.56,13049.97
4.56,13055.25
4.56,13060.47
4.56,13065.57
4.57,13070.57
4.57,13075.54
4.57,13080.63
4.57,13085.6
4.57,13090.44
4.57,13095.44
4.58,13100.5
4.58,13105.69
4.58,13110.79
4.58,13115.97
4.58,13121.29
4.58,13126.66
4.59,13132.04
4.59,13137.5
4.59,13142.97
4.59,13148.5
4.59,13154
4.59,13159.44
4.6,13165.07
4.6,13170.79
4.6,13176.5
4.6,13182.22
4.6,13187.72
4.6,13193.22
4.61,13198.63
4.61,13203.85
4.61,13209.07
4.61,13214.44
4.61,13219.69
4.61,13224.82
4.62,13229.79
4.62,13234.66
4.62,13239.5
4.62,13244.19
4.62,13248.75
4.62,13253.44
4.63,13258.16
4.63,13262.82
4.63,13267.47
4.63,13272.29
4.63,13277.1
4.63,13282
4.64,13287.16
4.64,13292.47
4.64,13298
4.64,13303.57
4.64,13309.13
4.64,13314.79
4.65,13320.25
4.65,13325.69
4.65,13331.1
4.65,13336.57
4.65,13341.91
4.65,13347.16
4.66,13352.38
4.66,13357.47
4.66,13362.44
4.66,13367.25
4.66,13372.1
4.66,13376.91
4.67,13381.85
4.67,13386.75
4.67,13391.5
4.67,13396.19
4.67,13400.85
4.67,13405.44
4.68,13410.07
4.68,13414.6
4.68,13419.25
4.68,13423.97
4.68,13428.6
4.68,13433.25
4.69,13438.13
4.69,13443.19
4.69,13448.29
4.69,13453.38
4.69,13458.63
4.69,13464.1
4.7,13469.54
4.7,13474.94
4.7,13480.47
4.7,13486.29
4.7,13492.04
4.7,13497.75
4.71,13503.35
4.71,13509.04
4.71,13514.66
4.71,13520.16
4.71,13525.6
4.71,13530.91
4.72,13536.07
4.72,13540.91
4.72,13545.57
4.72,13550.29
4.72,13555.13
4.72,13560.04
4.73,13564.79
4.73,13569.6
4.73,13574.47
4.73,13579.35
4.73,13584.04
4.73,13588.66
4.74,13593.38
4.74,13598.13
4.74,13602.75
4.74,13607.32
4.74,13611.94
4.74,13616.57
4.75,13621.07
4.75,13625.63
4.75,13630.38
4.75,13635.32
4.75,13640.32
4.75,13645.16
4.76,13649.97
4.76,13654.69
4.76,13659.47
4.76,13664.22
4.76,13669.07
4.76,13673.88
4.77,13678.91
4.77,13683.79
4.77,13688.54
4.77,13693.35
4.77,13698.25
4.77,13703.13
4.78,13708.04
4.78,13713
4.78,13718.04
4.78,13723.04
4.78,13727.79
4.78,13732.44
4.79,13737.22
4.79,13741.91
4.79,13746.44
4.79,13751
4.79,13755.6
4.79,13760.13
4.8,13764.57
4.8,13769
4.8,13773.47
4.8,13778.04
4.8,13782.57
4.8,13787.19
4.81,13791.97
4.81,13796.82
4.81,13801.69
4.81,13806.57
4.81,13811.47
4.81,13816.5
4.82,13821.69
4.82,13826.85
4.82,13832
4.82,13837.16
4.82,13842.35
4.82,13847.38
4.83,13852.38
4.83,13857.25
4.83,13862.07
4.83,13866.72
4.83,13871.32
4.83,13875.94
4.84,13880.57
4.84,13885.1
4.84,13889.5
4.84,13893.82
4.84,13897.97
4.84,13902.04
4.85,13905.99
4.85,13909.97
4.85,13913.94
4.85,13917.79
4.85,13921.75
4.85,13925.79
4.86,13929.85
4.86,13934
4.86,13938.47
4.86,13943.16
4.86,13948.07
4.86,13953.07
4.87,13958.13
4.87,13963.16
4.87,13968.19
4.87,13973.1
4.87,13978.1
4.87,13983.13
4.88,13988.13
4.88,13993
4.88,13997.72
4.88,14002.32
4.88,14006.91
4.88,14011.44
4.89,14015.85
4.89,14020.29
4.89,14024.82
4.89,14029.32
4.89,14033.63
4.89,14037.91
4.9,14042.19
4.9,14046.41
4.9,14050.47
4.9,14054.54
4.9,14058.69
4.9,14062.94
4.91,14067.13
4.91,14071.35
4.91,14075.6
4.91,14080.1
4.91,14084.66
4.91,14089.19
4.92,14093.88
4.92,14098.75
4.92,14103.66
4.92,14108.44
4.92,14113.19
4.92,14117.82
4.93,14122.47
4.93,14126.97
4.93,14131.44
4.93,14135.97
4.93,14140.44
4.93,14144.97
4.94,14149.41
4.94,14153.75
4.94,14158.07
4.94,14162.38
4.94,14166.6
4.94,14170.82
4.95,14175.07
4.95,14179.41
4.95,14183.66
4.95,14187.75
4.95,14191.79
4.95,14195.88
4.96,14199.8
4.96,14203.79
4.96,14207.88
4.96,14211.97
4.96,14216.04
4.96,14220.19
4.97,14224.38
4.97,14228.63
4.97,14232.88
4.97,14237.22
4.97,14241.82
4.97,14246.41
4.98,14250.91
4.98,14255.44
4.98,14259.85
4.98,14264.07
4.98,14268.29
4.98,14272.54
4.99,14276.82
4.99,14281.13
4.99,14285.38
4.99,14289.63
4.99,14293.88
4.99,14298.1
5,14302.35
5,14306.75
5,14311.16
5,14315.63
5,14320.13
5,14324.44
5.01,14328.69
5.01,14332.82
5.01,14336.94
5.01,14340.85
5.01,14344.74
5.01,14348.61
5.02,14352.4
5.02,14356.04
5.02,14359.61
5.02,14363.29
5.02,14366.9
5.02,14370.54
5.03,14374.19
5.03,14378
5.03,14381.88
5.03,14385.82
5.03,14389.79
5.03,14393.94
5.04,14398.1
5.04,14402.29
5.04,14406.66
5.04,14411.13
5.04,14415.6
5.04,14420.16
5.05,14424.75
5.05,14429.25
5.05,14433.63
5.05,14437.88
5.05,14442
5.05,14446.16
5.06,14450.25
5.06,14454.35
5.06,14458.47
5.06,14462.4
5.06,14466.22
5.06,14469.93
5.07,14473.54
5.07,14477.13
5.07,14480.79
5.07,14484.32
5.07,14487.93
5.07,14491.46
5.08,14495
5.08,14498.66
5.08,14502.32
5.08,14506.1
5.08,14510.08
5.08,14514.3
5.09,14518.55
5.09,14522.96
5.09,14527.4
5.09,14531.8
5.09,14536.11
5.09,14540.4
5.1,14544.8
5.1,14549.24
5.1,14553.68
5.1,14557.99
5.1,14562.24
5.1,14566.33
5.11,14570.25
5.11,14574.1
5.11,14577.93
5.11,14581.79
5.11,14585.65
5.11,14589.46
5.12,14593.18
5.12,14596.74
5.12,14600.21
5.12,14603.61
5.12,14607.02
5.12,14610.43
5.13,14614.02
5.13,14617.65
5.13,14621.21
5.13,14624.86
5.13,14628.66
5.13,14632.6
5.14,14636.66
5.14,14640.88
5.14,14645.19
5.14,14649.72
5.14,14654.07
5.14,14658.44
5.15,14662.79
5.15,14667.1
5.15,14671.25
5.15,14675.44
5.15,14679.54
5.15,14683.57
5.16,14687.54
5.16,14691.35
5.16,14695.21
5.16,14699.02
5.16,14702.75
5.16,14706.41
5.17,14710.11
5.17,14713.82
5.17,14717.6
5.17,14721.38
5.17,14725.11
5.17,14728.85
5.18,14732.52
5.18,14736.1
5.18,14739.54
5.18,14742.9
5.18,14746.33
5.18,14749.68
5.19,14752.91
5.19,14756.22
5.19,14759.65
5.19,14763
5.19,14766.36
5.19,14769.91
5.2,14773.65
5.2,14777.49
5.2,14781.27
5.2,14785.27
5.2,14789.33
5.2,14793.27
5.21,14797.13
5.21,14801.1
5.21,14805.08
5.21,14809.02
5.21,14812.9
5.21,14816.72
5.22,14820.57
5.22,14824.19
5.22,14827.75
5.22,14831.49
5.22,14835.29
5.22,14839.1
5.23,14843
5.23,14846.8
5.23,14850.52
5.23,14854.19
5.23,14857.83
5.23,14861.43
5.24,14864.94
5.24,14868.41
5.24,14871.85
5.24,14875.22
5.24,14878.57
5.24,14882.05
5.25,14885.55
5.25,14889.08
5.25,14892.66
5.25,14896.41
5.25,14900.22
5.25,14904
5.26,14907.8
5.26,14911.69
5.26,14915.52
5.26,14919.41
5.26,14923.36
5.26,14927.3
5.27,14931.18
5.27,14935.07
5.27,14939
5.27,14942.93
5.27,14946.68
5.27,14950.29
5.28,14953.99
5.28,14957.57
5.28,14961.1
5.28,14964.69
5.28,14968.24
5.28,14971.55
5.29,14974.75
5.29,14977.86
5.29,14980.94
5.29,14983.9
5.29,14986.69
5.29,14989.49
5.3,14992.21
5.3,14994.86
5.3,14997.66
5.3,15000.61
5.3,15003.58
5.3,15006.61
